Data File Name,2100 expert_High Sensitivity DNA Assay_DE34903936_2014-02-25_12-30-24.xad
Data File Path,S:\Genomics\Next_Gen_Sequencing\Solexa_Illumina\HiSEQ\Shilatifard\DHU\MOLNG-737
Date Created,"Tuesday, February 25, 2014 6:30:24 PM"
Date Last Modified,"Tuesday, February 25, 2014 7:16:16 PM"
Version Created,B.02.08.SI648
Version Last Modified,B.02.08.SI648
 
Assay Name,High Sensitivity DNA
Assay Path,C:\Program Files (x86)\Agilent\2100 bioanalyzer\2100 expert\assays\dsDNA
Assay Title,High Sensitivity DNA Assay
Assay Version,1.03
 
Number of Samples Run,11
 
Sample Name,L8577 10nM
Number of Events,2121
 
Time,Value
32,5.095527E-02
32.05,3.945426E-02
32.1,8.252193E-02
32.15,-4.565955E-02
32.2,1.798978E-02
32.25,0.2535893
32.3,0.461281
32.35,0.4502845
32.4,0.2746917
32.45,8.722202E-02
32.5,-0.1382132
32.55,-0.2068361
32.6,0.1272867
32.65,0.4350601
32.7,0.5272162
32.75,0.393475
32.8,0.1831198
32.85,-3.175773E-02
32.9,-7.828983E-02
32.95,0.0690313
33,0.2676697
33.05,0.226908
33.1,0.1115156
33.15,-0.1003866
33.2,-0.3438068
33.25,-0.4896271
33.3,-0.5082124
33.35,-0.4745299
33.4,-0.4752558
33.45,-0.4045184
33.5,-0.3951198
33.55,-0.2721393
33.6,-0.1640557
33.65,-7.746609E-02
33.7,-0.1168757
33.75,-0.1222104
33.8,-0.1373759
33.85,-9.615286E-02
33.9,5.570374E-02
33.95,9.220888E-02
34,-0.0538648
34.05,-0.2708615
34.1,-0.4562453
34.15,-0.7169811
34.2,-0.7816423
34.25,-0.5635986
34.3,-0.2014214
34.35,0.0605015
34.4,0.2013582
34.45,0.1707215
34.5,-0.1569386
34.55,-0.4561315
34.6,-0.5640339
34.65,-0.5566095
34.7,-0.5180275
34.75,-0.3858944
34.8,-0.1087265
34.85,5.449951E-02
34.9,0.2231843
34.95,0.2172984
35,-5.487923E-02
35.05,-0.4862712
35.1,-0.9044998
35.15,-0.9940167
35.2,-0.7722037
35.25,-0.4289137
35.3,-7.810295E-02
35.35,0.1804981
35.4,0.2046492
35.45,2.218101E-02
35.5,-7.822537E-02
35.55,8.528976E-03
35.6,0.1276116
35.65,5.739038E-02
35.7,-0.1618425
35.75,-0.4623058
35.8,-0.6874735
35.85,-0.6703836
35.9,-0.3849112
35.95,-0.256199
36,-0.4475464
36.05,-0.7247258
36.1,-0.9150515
36.15,-0.9228827
36.2,-0.7816104
36.25,-0.6525006
36.3,-0.6313337
36.35,-0.6911796
36.4,-0.8031828
36.45,-0.521165
36.5,-0.2557033
36.55,-0.295847
36.6,-0.621848
36.65,-0.8406774
36.7,-0.9960212
36.75,-1.0452
36.8,-0.7924402
36.85,-0.5167302
36.9,-0.4931835
36.95,-0.4316114
37,-0.3848769
37.05,-0.6311142
37.1,-0.8268966
37.15,-0.8114539
37.2,-0.734609
37.25,-0.6678269
37.3,-0.6433498
37.35,-0.7431174
37.4,-1.046345
37.45,-1.304163
37.5,-1.397137
37.55,-1.3067
37.6,-1.128145
37.65,-0.9489427
37.7,-0.5831068
37.75,-0.4022028
37.8,-0.3845662
37.85,-0.6037804
37.9,-0.9048256
37.95,-1.216899
38,-1.250271
38.05,-0.9428868
38.1,-0.6832262
38.15,-0.5565639
38.2,-0.5581356
38.25,-0.5410803
38.3,-0.8333843
38.35,-1.117557
38.4,-1.189344
38.45,-1.133085
38.5,-0.8836161
38.55,-0.6958944
38.6,-0.5527216
38.65,-0.6511693
38.7,-0.9209579
38.75,-1.113262
38.8,-1.179026
38.85,-1.213027
38.9,-1.261397
38.95,-1.111859
39,-0.9933423
39.05,-1.020811
39.1,-1.125309
39.15,-1.297449
39.2,-1.496169
39.25,-1.68813
39.3,-1.725871
39.35,-1.504584
39.4,-1.207716
39.45,-0.8415238
39.5,-0.6015049
39.55,-0.5680923
39.6,-0.9551018
39.65,-1.26877
39.7,-1.216911
39.75,-1.02393
39.8,-0.7282043
39.85,-0.367875
39.9,-0.2473062
39.95,-0.4006683
40,-0.5750821
40.05,-0.7578738
40.1,-1.043935
40.15,-1.24808
40.2,-1.282575
40.25,-1.198096
40.3,-1.049834
40.35,-0.7417594
40.4,-0.6701249
40.45,-0.8552781
40.5,-1.110506
40.55,-1.297185
40.6,-1.142604
40.65,-1.21916
40.7,-1.319502
40.75,-1.378406
40.8,-1.402773
40.85,-1.261195
40.9,-1.027502
40.95,-0.9915703
41,-1.202062
41.05,-1.246083
41.1,-1.192407
41.15,-1.187627
41.2,-1.154464
41.25,-1.074247
41.3,-1.071258
41.35,-0.9743328
41.4,-0.9168186
41.45,-1.132355
41.5,-1.205911
41.55,-1.359766
41.6,-1.474055
41.65,-1.480562
41.7,-1.149931
41.75,-0.9827075
41.8,-0.9488415
41.85,-0.8352721
41.9,-0.7679363
41.95,-0.7179959
42,-0.4979088
42.05,-0.1474553
42.1,-0.1168049
42.15,-0.2093587
42.2,-0.354668
42.25,-0.4172473
42.3,-0.6022241
42.35,-0.5967545
42.4,-0.3872685
42.45,-7.943854E-02
42.5,0.6736873
42.55,2.538167
42.6,6.721793
42.65,13.79266
42.7,24.32903
42.75,38.01706
42.8,53.99814
42.85,70.77935
42.9,85.5871
42.95,95.4813
43,97.80933
43.05,91.49393
43.1,78.425
43.15,61.84119
43.2,44.90281
43.25,29.73787
43.3,17.92073
43.35,9.839489
43.4,5.075935
43.45,2.488698
43.5,1.626295
43.55,1.421555
43.6,1.292897
43.65,1.21548
43.7,1.145404
43.75,0.8779442
43.8,0.3713091
43.85,-1.039747E-02
43.9,-0.2695832
43.95,-0.2675318
44,-9.109058E-02
44.05,0.2607801
44.1,0.4514554
44.15,0.3698055
44.2,0.3575495
44.25,0.3282912
44.3,0.2292493
44.35,1.778787E-02
44.4,3.489815E-02
44.45,0.1855105
44.5,-2.180278E-02
44.55,-0.2348894
44.6,-0.3995799
44.65,-0.604242
44.7,-0.8353435
44.75,-0.7888213
44.8,-0.6759503
44.85,-0.8367171
44.9,-1.071074
44.95,-1.118837
45,-1.16547
45.05,-1.409263
45.1,-1.545516
45.15,-1.578413
45.2,-1.618485
45.25,-1.573116
45.3,-1.294021
45.35,-1.079672
45.4,-1.231111
45.45,-1.462251
45.5,-1.620346
45.55,-1.876815
45.6,-2.081335
45.65,-1.922403
45.7,-1.689472
45.75,-1.487675
45.8,-1.286453
45.85,-1.109923
45.9,-1.080252
45.95,-1.157048
46,-1.200738
46.05,-1.362518
46.1,-1.570708
46.15,-1.70188
46.2,-1.742154
46.25,-1.681533
46.3,-1.554289
46.35,-1.703753
46.4,-1.887368
46.45,-2.085802
46.5,-2.249355
46.55,-2.386096
46.6,-2.355824
46.65,-2.297317
46.7,-2.517063
46.75,-2.379471
46.8,-2.067875
46.85,-1.8824
46.9,-1.675594
46.95,-1.397616
47,-1.40946
47.05,-1.491844
47.1,-1.361515
47.15,-1.281663
47.2,-1.438199
47.25,-1.676744
47.3,-1.763767
47.35,-1.912789
47.4,-1.93931
47.45,-2.035792
47.5,-2.104363
47.55,-2.23314
47.6,-2.302052
47.65,-2.268027
47.7,-2.289307
47.75,-2.393295
47.8,-2.635705
47.85,-2.567592
47.9,-2.544812
47.95,-2.513941
48,-2.445647
48.05,-2.262865
48.1,-2.106333
48.15,-2.007773
48.2,-1.839966
48.25,-1.957538
48.3,-2.067631
48.35,-2.126119
48.4,-2.014801
48.45,-2.147563
48.5,-2.349191
48.55,-2.341972
48.6,-2.283588
48.65,-2.188339
48.7,-2.220391
48.75,-2.190494
48.8,-2.382462
48.85,-2.253136
48.9,-1.992901
48.95,-1.834109
49,-1.888393
49.05,-2.198247
49.1,-2.433052
49.15,-2.63255
49.2,-2.571012
49.25,-2.418931
49.3,-2.242893
49.35,-2.254924
49.4,-2.31948
49.45,-2.260622
49.5,-2.31054
49.55,-2.409915
49.6,-2.37077
49.65,-2.364978
49.7,-2.488271
49.75,-2.458115
49.8,-2.4675
49.85,-2.460719
49.9,-2.442926
49.95,-2.217165
50,-1.938893
50.05,-1.701457
50.1,-1.582268
50.15,-1.888828
50.2,-2.133894
50.25,-2.284933
50.3,-2.160578
50.35,-1.791276
50.4,-1.487783
50.45,-1.706451
50.5,-2.232533
50.55,-2.599301
50.6,-2.887338
50.65,-2.845064
50.7,-2.670378
50.75,-2.344815
50.8,-2.054868
50.85,-1.83571
50.9,-1.866337
50.95,-2.136598
51,-2.536869
51.05,-3.040746
51.1,-3.156709
51.15,-2.992281
51.2,-2.666284
51.25,-2.362492
51.3,-2.089573
51.35,-2.185598
51.4,-2.25491
51.45,-2.128262
51.5,-2.145965
51.55,-2.392683
51.6,-2.65068
51.65,-2.723711
51.7,-2.781715
51.75,-2.448509
51.8,-2.096708
51.85,-2.13808
51.9,-2.371414
51.95,-2.864199
52,-3.121831
52.05,-3.169816
52.1,-2.880895
52.15,-2.650166
52.2,-2.456719
52.25,-2.414553
52.3,-2.496155
52.35,-2.314905
52.4,-2.158217
52.45,-2.118865
52.5,-2.206119
52.55,-2.275527
52.6,-2.499222
52.65,-2.690034
52.7,-2.558845
52.75,-2.139233
52.8,-1.730874
52.85,-1.386446
52.9,-1.084032
52.95,-0.9542047
53,-0.5884753
53.05,0.1561789
53.1,1.028764
53.15,1.464289
53.2,1.259913
53.25,0.6280993
53.3,-0.1834926
53.35,-0.8182879
53.4,-1.447895
53.45,-1.787311
53.5,-2.117111
53.55,-2.461126
53.6,-2.515437
53.65,-2.335276
53.7,-2.255398
53.75,-2.438479
53.8,-2.533184
53.85,-2.820158
53.9,-2.870903
53.95,-2.721926
54,-2.614445
54.05,-2.795399
54.1,-3.160092
54.15,-3.386199
54.2,-3.53142
54.25,-3.492597
54.3,-3.315603
54.35,-3.16096
54.4,-3.095554
54.45,-3.203504
54.5,-3.220101
54.55,-3.18472
54.6,-3.286735
54.65,-3.288953
54.7,-3.209842
54.75,-3.10337
54.8,-3.036623
54.85,-3.079197
54.9,-3.030734
54.95,-3.087643
55,-2.951159
55.05,-2.891919
55.1,-2.964571
55.15,-3.189057
55.2,-3.415732
55.25,-3.495426
55.3,-3.373697
55.35,-3.038727
55.4,-2.993068
55.45,-2.99412
55.5,-3.15472
55.55,-3.291374
55.6,-3.368663
55.65,-3.267233
55.7,-2.875637
55.75,-2.391685
55.8,-1.963335
55.85,-2.122951
55.9,-2.752005
55.95,-3.40039
56,-3.646487
56.05,-3.512489
56.1,-3.212776
56.15,-2.97918
56.2,-2.978088
56.25,-3.229343
56.3,-3.410013
56.35,-3.454883
56.4,-3.451371
56.45,-3.395265
56.5,-3.263542
56.55,-3.274433
56.6,-3.425108
56.65,-3.621266
56.7,-3.676837
56.75,-3.76398
56.8,-3.840323
56.85,-3.73318
56.9,-3.52475
56.95,-3.396116
57,-3.358203
57.05,-3.323883
57.1,-3.285152
57.15,-3.366179
57.2,-3.234708
57.25,-3.13287
57.3,-3.37524
57.35,-3.818076
57.4,-3.909217
57.45,-3.577642
57.5,-3.107255
57.55,-2.646852
57.6,-2.37132
57.65,-2.371374
57.7,-2.826245
57.75,-3.18711
57.8,-3.355438
57.85,-3.496853
57.9,-3.568166
57.95,-3.475098
58,-3.401217
58.05,-3.435605
58.1,-3.437248
58.15,-3.342028
58.2,-3.558882
58.25,-3.869875
58.3,-4.0728
58.35,-3.98146
58.4,-3.646341
58.45,-3.243324
58.5,-2.967085
58.55,-2.983545
58.6,-3.227539
58.65,-3.267722
58.7,-3.194928
58.75,-3.293854
58.8,-3.425378
58.85,-3.464164
58.9,-3.281786
58.95,-2.972119
59,-2.628017
59.05,-2.558997
59.1,-2.830561
59.15,-3.142086
59.2,-3.307262
59.25,-3.215329
59.3,-3.089909
59.35,-2.745165
59.4,-2.463695
59.45,-2.411414
59.5,-2.258499
59.55,-2.357229
59.6,-2.40447
59.65,-2.591133
59.7,-2.538512
59.75,-2.460718
59.8,-2.261486
59.85,-1.937963
59.9,-1.681812
59.95,-1.389037
60,-1.391468
60.05,-1.392766
60.1,-1.239888
60.15,-1.122716
60.2,-1.032852
60.25,-0.6382397
60.3,-0.2045949
60.35,6.932817E-02
60.4,0.1423751
60.45,3.084525E-02
60.5,1.806641E-02
60.55,1.195125E-03
60.6,0.3064683
60.65,0.5985608
60.7,0.9671466
60.75,1.240698
60.8,1.493059
60.85,2.070592
60.9,2.414447
60.95,2.833771
61,3.160662
61.05,3.679143
61.1,4.018921
61.15,4.517206
61.2,5.059935
61.25,5.414941
61.3,5.751585
61.35,6.137248
61.4,6.906645
61.45,7.714704
61.5,8.123935
61.55,8.486747
61.6,8.959939
61.65,9.310952
61.7,9.759146
61.75,10.54643
61.8,11.34077
61.85,11.70968
61.9,11.99556
61.95,12.46851
62,13.07581
62.05,13.82223
62.1,14.55645
62.15,15.13148
62.2,15.51414
62.25,15.78922
62.3,16.58408
62.35,17.78086
62.4,18.27969
62.45,18.35649
62.5,18.25986
62.55,18.40929
62.6,19.046
62.65,20.07611
62.7,21.13111
62.75,21.69958
62.8,22.16034
62.85,22.91612
62.9,23.61365
62.95,24.43572
63,25.26261
63.05,26.21645
63.1,26.73508
63.15,27.13012
63.2,27.57636
63.25,27.81844
63.3,28.06079
63.35,28.24681
63.4,28.88366
63.45,29.44654
63.5,30.03766
63.55,30.8437
63.6,31.57675
63.65,31.97928
63.7,32.54208
63.75,33.39337
63.8,33.74429
63.85,34.37125
63.9,34.94711
63.95,35.7204
64,36.14655
64.05,36.78291
64.1,37.07321
64.15,36.91169
64.2,37.20182
64.25,37.66394
64.3,38.50725
64.35,39.50249
64.4,40.58353
64.45,41.26295
64.5,41.47561
64.55,41.55025
64.6,41.76523
64.65,42.33966
64.7,43.16434
64.75,43.93121
64.8,44.3861
64.85,44.47193
64.9,44.48079
64.95,44.77249
65,45.40939
65.05,45.65763
65.1,45.61195
65.15,45.95527
65.2,46.66803
65.25,47.97772
65.3,49.17973
65.35,49.6632
65.4,49.99786
65.45,49.87697
65.5,50.20219
65.55,50.90349
65.6,51.83804
65.65,52.17208
65.7,52.60767
65.75,53.36497
65.8,53.21949
65.85,53.06898
65.9,53.01137
65.95,52.79626
66,53.08665
66.05,53.81011
66.1,54.40842
66.15,54.86393
66.2,55.0759
66.25,55.55854
66.3,56.08388
66.35,56.76902
66.4,56.69208
66.45,56.96914
66.5,57.24742
66.55,57.29452
66.6,57.33786
66.65,57.46489
66.7,57.81636
66.75,58.33723
66.8,59.58717
66.85,59.86617
66.9,59.48471
66.95,58.99944
67,58.51804
67.05,58.43646
67.1,58.95176
67.15,59.45316
67.2,60.07199
67.25,60.94973
67.3,61.584
67.35,61.78801
67.4,61.88827
67.45,61.87525
67.5,61.57531
67.55,61.74215
67.6,62.11919
67.65,62.14702
67.7,62.32565
67.75,62.71154
67.8,63.317
67.85,63.92637
67.9,64.49481
67.95,64.67137
68,64.43913
68.05,63.7763
68.1,63.85433
68.15,64.27717
68.2,64.46198
68.25,64.88184
68.3,65.41393
68.35,65.57586
68.4,65.59125
68.45,65.81622
68.5,65.93358
68.55,65.77428
68.6,65.73861
68.65,66.05751
68.7,66.14541
68.75,66.63528
68.8,67.02613
68.85,66.92632
68.9,66.37991
68.95,66.19743
69,66.71908
69.05,67.05807
69.1,67.76989
69.15,67.5809
69.2,67.05373
69.25,66.96233
69.3,67.28747
69.35,67.58531
69.4,67.88223
69.45,68.26224
69.5,68.08759
69.55,68.55538
69.6,68.48556
69.65,68.14776
69.7,67.61868
69.75,67.52037
69.8,67.97382
69.85,68.17657
69.9,68.54987
69.95,68.85379
70,68.61695
70.05,68.15613
70.1,68.46615
70.15,68.7233
70.2,68.79877
70.25,68.97812
70.3,68.88992
70.35,68.20963
70.4,68.04163
70.45,67.75583
70.5,67.8032
70.55,67.90852
70.6,67.63618
70.65,67.31778
70.7,67.08518
70.75,66.91479
70.8,66.85186
70.85,66.80718
70.9,67.02788
70.95,66.8838
71,67.40208
71.05,67.71603
71.1,67.76816
71.15,67.71548
71.2,67.41663
71.25,67.37965
71.3,66.87485
71.35,66.8057
71.4,66.70679
71.45,65.7503
71.5,65.19635
71.55,65.45557
71.6,65.66143
71.65,65.75639
71.7,66.12043
71.75,66.39019
71.8,66.23341
71.85,66.30487
71.9,66.15292
71.95,65.60974
72,64.9899
72.05,64.56008
72.1,64.24213
72.15,64.10537
72.2,63.75208
72.25,63.65792
72.3,63.61399
72.35,63.80502
72.4,63.98505
72.45,64.39165
72.5,64.60889
72.55,64.43535
72.6,64.46241
72.65,64.36102
72.7,64.21398
72.75,64.0949
72.8,63.72237
72.85,63.47581
72.9,63.42973
72.95,63.2997
73,63.43381
73.05,63.62336
73.1,63.55801
73.15,63.27167
73.2,63.16417
73.25,62.75427
73.3,61.61049
73.35,61.71189
73.4,62.72818
73.45,62.65468
73.5,62.2639
73.55,62.17184
73.6,61.68727
73.65,61.2585
73.7,61.93781
73.75,62.86422
73.8,62.57937
73.85,62.20157
73.9,62.09864
73.95,61.5126
74,60.95047
74.05,60.49329
74.1,59.83509
74.15,58.74956
74.2,58.10558
74.25,58.5408
74.3,58.96854
74.35,58.88912
74.4,58.99184
74.45,59.18386
74.5,58.84109
74.55,58.68539
74.6,58.93683
74.65,58.56746
74.7,58.18287
74.75,57.8398
74.8,57.6738
74.85,57.46033
74.9,57.88155
74.95,58.54522
75,58.59565
75.05,58.20376
75.1,57.02758
75.15,56.47985
75.2,56.59604
75.25,56.56007
75.3,56.60181
75.35,56.36726
75.4,55.73322
75.45,55.24729
75.5,55.29653
75.55,55.70605
75.6,55.85235
75.65,56.42482
75.7,56.49834
75.75,56.4516
75.8,56.08714
75.85,55.54028
75.9,55.45438
75.95,55.46046
76,55.64522
76.05,55.82636
76.1,55.8698
76.15,55.59386
76.2,55.69246
76.25,56.27743
76.3,56.3409
76.35,55.88023
76.4,55.54961
76.45,55.09761
76.5,54.58817
76.55,55.04819
76.6,55.41351
76.65,55.23674
76.7,55.06562
76.75,55.27729
76.8,55.63532
76.85,56.02571
76.9,56.04541
76.95,55.34219
77,55.4334
77.05,55.52351
77.1,55.58719
77.15,55.79366
77.2,55.88227
77.25,55.68087
77.3,55.59294
77.35,55.8903
77.4,55.93187
77.45,55.6712
77.5,55.70549
77.55,55.70362
77.6,55.53205
77.65,55.49477
77.7,55.6598
77.75,55.86424
77.8,55.53681
77.85,55.75969
77.9,56.00078
77.95,55.48095
78,54.45038
78.05,54.3382
78.1,55.02538
78.15,56.02599
78.2,56.86713
78.25,57.00135
78.3,56.46456
78.35,56.05631
78.4,56.30237
78.45,56.87796
78.5,57.33491
78.55,57.2098
78.6,57.2119
78.65,57.58085
78.7,58.05966
78.75,57.91836
78.8,57.8486
78.85,57.66253
78.9,57.39009
78.95,57.3027
79,57.68434
79.05,58.2807
79.1,58.4671
79.15,58.73529
79.2,58.90614
79.25,59.10887
79.3,59.15297
79.35,58.85766
79.4,58.72686
79.45,58.42524
79.5,58.61422
79.55,59.23593
79.6,59.59797
79.65,59.53002
79.7,59.40964
79.75,58.95625
79.8,58.7507
79.85,59.11142
79.9,59.60711
79.95,59.53037
80,59.20112
80.05,58.89773
80.1,58.2765
80.15,58.24987
80.2,59.00666
80.25,59.92788
80.3,60.17066
80.35,60.24887
80.4,60.77333
80.45,60.93856
80.5,60.96848
80.55,60.8173
80.6,60.66034
80.65,60.70694
80.7,61.42749
80.75,62.39437
80.8,62.98757
80.85,63.369
80.9,63.1851
80.95,62.95589
81,62.57495
81.05,62.73582
81.1,62.86821
81.15,62.97075
81.2,62.95324
81.25,63.20638
81.3,63.60853
81.35,63.10712
81.4,62.74187
81.45,62.1113
81.5,62.37066
81.55,63.34138
81.6,64.31944
81.65,64.67098
81.7,64.61703
81.75,64.81906
81.8,65.13964
81.85,65.98561
81.9,66.25444
81.95,66.12606
82,65.82887
82.05,65.65308
82.1,65.4371
82.15,65.59176
82.2,65.98135
82.25,66.29947
82.3,66.89017
82.35,67.12003
82.4,67.21277
82.45,67.22353
82.5,67.58038
82.55,67.62955
82.6,67.78884
82.65,67.63749
82.7,66.7271
82.75,66.46696
82.8,67.26282
82.85,67.74145
82.9,67.68764
82.95,67.9929
83,68.2552
83.05,67.42951
83.1,67.16812
83.15,68.20211
83.2,68.73254
83.25,69.27134
83.3,69.23654
83.35,68.79105
83.4,68.17769
83.45,68.0306
83.5,68.32639
83.55,68.04807
83.6,67.59119
83.65,66.91959
83.7,67.19931
83.75,68.01686
83.8,68.23759
83.85,68.10025
83.9,68.06515
83.95,67.96027
84,67.95869
84.05,67.95866
84.1,68.30231
84.15,68.54459
84.2,68.8018
84.25,69.25225
84.3,69.46475
84.35,69.82003
84.4,70.0399
84.45,70.0481
84.5,69.3303
84.55,68.84982
84.6,68.29264
84.65,68.06332
84.7,68.78906
84.75,69.16177
84.8,69.26741
84.85,69.06927
84.9,68.97837
84.95,69.09327
85,69.27767
85.05,69.98445
85.1,70.52963
85.15,70.34415
85.2,69.56688
85.25,68.81554
85.3,68.6576
85.35,68.68045
85.4,68.97488
85.45,69.13496
85.5,69.25582
85.55,69.38659
85.6,69.05122
85.65,68.50393
85.7,68.34701
85.75,68.41415
85.8,68.38396
85.85,69.20404
85.9,69.70737
85.95,69.57887
86,69.46998
86.05,69.7084
86.1,69.76458
86.15,69.83656
86.2,70.50023
86.25,70.76361
86.3,70.34048
86.35,70.0602
86.4,69.78341
86.45,69.70534
86.5,70.39758
86.55,71.43793
86.6,71.77087
86.65,71.5525
86.7,71.16953
86.75,71.20712
86.8,71.56413
86.85,71.85251
86.9,71.76241
86.95,71.4817
87,71.34418
87.05,71.56461
87.1,72.69392
87.15,73.69834
87.2,73.88349
87.25,73.83553
87.3,73.60107
87.35,73.68389
87.4,74.64448
87.45,75.2847
87.5,75.73113
87.55,75.8807
87.6,75.9715
87.65,76.00513
87.7,76.18761
87.75,76.85564
87.8,77.69716
87.85,78.99013
87.9,80.15263
87.95,80.44229
88,80.20938
88.05,79.57451
88.1,78.76433
88.15,79.14879
88.2,80.1696
88.25,81.17661
88.3,82.12345
88.35,82.8319
88.4,82.88383
88.45,82.9136
88.5,83.65836
88.55,84.32855
88.6,84.68684
88.65,85.57536
88.7,86.3191
88.75,86.31866
88.8,85.3258
88.85,84.09795
88.9,83.67518
88.95,85.32848
89,87.11377
89.05,87.91148
89.1,87.74104
89.15,87.38213
89.2,88.01237
89.25,89.27636
89.3,89.85446
89.35,89.78529
89.4,91.24504
89.45,92.00135
89.5,92.59503
89.55,92.73351
89.6,92.45976
89.65,91.46249
89.7,91.48655
89.75,92.97315
89.8,93.65024
89.85,94.30379
89.9,94.86969
89.95,95.98386
90,96.3104
90.05,96.14177
90.1,96.13686
90.15,96.17941
90.2,96.0144
90.25,96.01691
90.3,96.44044
90.35,96.87709
90.4,97.5883
90.45,98.46179
90.5,99.36544
90.55,99.82932
90.6,100.228
90.65,100.8645
90.7,101.7908
90.75,102.2776
90.8,101.6301
90.85,101.2753
90.9,100.8554
90.95,100.2473
91,100.6027
91.05,101.1028
91.1,101.4148
91.15,101.2119
91.2,101.8606
91.25,102.031
91.3,102.591
91.35,103.1836
91.4,103.4747
91.45,103.8953
91.5,104.4037
91.55,104.5758
91.6,104.8265
91.65,105.197
91.7,104.8795
91.75,104.0984
91.8,103.0745
91.85,103.3588
91.9,104.7458
91.95,106.1217
92,107.4458
92.05,108.258
92.1,107.988
92.15,107.7945
92.2,108.4389
92.25,109.3868
92.3,109.5472
92.35,109.4019
92.4,109.544
92.45,109.3665
92.5,109.9895
92.55,110.8013
92.6,111.3666
92.65,111.3857
92.7,111.9304
92.75,112.1077
92.8,111.2861
92.85,111.312
92.9,112.7807
92.95,114.5842
93,115.7207
93.05,116.423
93.1,116.3747
93.15,115.9843
93.2,116.1831
93.25,117.4349
93.3,118.3892
93.35,118.7012
93.4,119.5407
93.45,119.6958
93.5,119.9326
93.55,120.3827
93.6,120.9451
93.65,121.9055
93.7,122.3433
93.75,123.8457
93.8,125.3551
93.85,126.3736
93.9,126.3381
93.95,125.3723
94,125.353
94.05,125.4096
94.1,126.6169
94.15,126.8689
94.2,127.3268
94.25,128.3085
94.3,129.2597
94.35,130.4981
94.4,130.2644
94.45,129.1966
94.5,128.1141
94.55,128.4358
94.6,129.4221
94.65,130.9385
94.7,132.1456
94.75,131.8327
94.8,131.9577
94.85,131.8853
94.9,131.4434
94.95,130.9293
95,130.5509
95.05,130.4752
95.1,131.4472
95.15,133.5564
95.2,133.8449
95.25,133.8123
95.3,134.6889
95.35,135.7039
95.4,136.1987
95.45,136.5773
95.5,135.8639
95.55,135.0342
95.6,135.3551
95.65,136.3416
95.7,136.2193
95.75,135.7792
95.8,136.0146
95.85,136.9723
95.9,138.4409
95.95,138.7676
96,138.9335
96.05,137.7927
96.1,138.0517
96.15,139.27
96.2,141.2234
96.25,143.3698
96.3,145.1701
96.35,145.648
96.4,144.4726
96.45,143.2835
96.5,142.8675
96.55,142.4953
96.6,142.5659
96.65,143.0266
96.7,143.218
96.75,143.5576
96.8,144.8213
96.85,145.3869
96.9,144.9541
96.95,145.721
97,145.9797
97.05,145.6645
97.1,144.838
97.15,144.5065
97.2,143.6944
97.25,144.0576
97.3,144.5196
97.35,143.4676
97.4,142.0282
97.45,140.4129
97.5,139.7465
97.55,140.8072
97.6,143.4771
97.65,145.311
97.7,146.1116
97.75,146.2124
97.8,145.6702
97.85,144.8066
97.9,144.7096
97.95,145.1316
98,144.3703
98.05,143.5677
98.1,142.6523
98.15,142.068
98.2,141.7021
98.25,142.0743
98.3,141.3815
98.35,140.5101
98.4,140.8909
98.45,140.7498
98.5,140.4933
98.55,140.2547
98.6,140.0428
98.65,138.0951
98.7,136.1254
98.75,134.6738
98.8,133.9928
98.85,135.2383
98.9,137.0639
98.95,137.55
99,136.2367
99.05,133.2411
99.1,130.3356
99.15,129.4458
99.2,130.1223
99.25,130.3517
99.3,129.5263
99.35,128.9392
99.4,128.3702
99.45,128.8053
99.5,128.7505
99.55,127.2234
99.6,124.0751
99.65,121.9481
99.7,122.5274
99.75,124.1867
99.8,125.1278
99.85,125.6533
99.9,125.8199
99.95,124.5986
100,122.3254
100.05,120.3651
100.1,119.2582
100.15,119.4595
100.2,120.6781
100.25,120.3159
100.3,117.6613
100.35,114.6128
100.4,111.8343
100.45,109.9951
100.5,108.7566
100.55,108.4072
100.6,108.9416
100.65,109.2155
100.7,109.168
100.75,108.4591
100.8,106.9297
100.85,104.5543
100.9,102.4464
100.95,100.4567
101,98.37389
101.05,97.37071
101.1,96.95908
101.15,96.91557
101.2,96.35886
101.25,95.06615
101.3,94.37311
101.35,93.81105
101.4,93.28896
101.45,92.27268
101.5,90.64479
101.55,89.29796
101.6,87.94793
101.65,86.63467
101.7,83.85004
101.75,81.57072
101.8,80.30345
101.85,80.00319
101.9,79.37062
101.95,77.53609
102,74.94836
102.05,72.96268
102.1,72.51077
102.15,73.49528
102.2,73.18494
102.25,71.8794
102.3,71.06262
102.35,69.52158
102.4,67.34699
102.45,64.56239
102.5,61.89808
102.55,59.97248
102.6,60.54255
102.65,61.83176
102.7,61.29932
102.75,59.63188
102.8,57.6865
102.85,55.34669
102.9,54.08665
102.95,53.74915
103,52.92391
103.05,52.44946
103.1,52.13689
103.15,51.18722
103.2,49.49716
103.25,48.24834
103.3,47.00563
103.35,45.89808
103.4,45.33381
103.45,43.87466
103.5,42.16516
103.55,41.27211
103.6,41.28482
103.65,41.09631
103.7,40.81199
103.75,40.71342
103.8,40.16964
103.85,39.79061
103.9,39.73015
103.95,39.64161
104,39.14188
104.05,38.73336
104.1,38.58155
104.15,37.78806
104.2,37.17777
104.25,36.89849
104.3,36.70922
104.35,36.67854
104.4,36.70038
104.45,36.51916
104.5,36.30521
104.55,36.34507
104.6,36.36407
104.65,36.7752
104.7,37.79072
104.75,38.70594
104.8,39.07514
104.85,39.20454
104.9,38.92643
104.95,37.98122
105,37.43503
105.05,37.26371
105.1,37.31398
105.15,37.74282
105.2,38.29618
105.25,38.36359
105.3,38.29313
105.35,38.34388
105.4,38.35738
105.45,38.69157
105.5,38.92474
105.55,39.13954
105.6,39.38842
105.65,40.23025
105.7,40.76918
105.75,40.75496
105.8,40.42157
105.85,40.26776
105.9,40.48281
105.95,40.70039
106,40.45206
106.05,39.25279
106.1,37.99509
106.15,36.97498
106.2,36.72874
106.25,37.33633
106.3,38.088
106.35,38.17458
106.4,38.29217
106.45,38.60207
106.5,38.30608
106.55,37.71919
106.6,37.73785
106.65,37.57195
106.7,37.18796
106.75,36.56299
106.8,36.29144
106.85,36.05715
106.9,35.41258
106.95,34.82916
107,32.99326
107.05,31.3729
107.1,30.60662
107.15,30.82321
107.2,30.97568
107.25,30.91246
107.3,30.44819
107.35,30.36489
107.4,30.70591
107.45,30.00062
107.5,29.17824
107.55,29.32946
107.6,29.39847
107.65,29.08167
107.7,29.43762
107.75,28.96275
107.8,27.39038
107.85,26.6654
107.9,26.24752
107.95,25.24674
108,24.36065
108.05,23.88619
108.1,23.24696
108.15,23.04561
108.2,23.49567
108.25,23.59428
108.3,23.59552
108.35,23.15655
108.4,22.22615
108.45,22.03688
108.5,22.05733
108.55,21.31828
108.6,20.50854
108.65,20.42038
108.7,20.59718
108.75,20.40373
108.8,20.66995
108.85,19.78012
108.9,18.10079
108.95,17.11673
109,16.83736
109.05,16.80292
109.1,16.9925
109.15,17.21406
109.2,17.01375
109.25,16.31557
109.3,15.96798
109.35,15.40522
109.4,15.02151
109.45,14.48451
109.5,13.88419
109.55,13.61814
109.6,13.5029
109.65,13.80196
109.7,14.03918
109.75,14.22098
109.8,14.06765
109.85,13.68041
109.9,13.51187
109.95,13.02929
110,12.60179
110.05,12.80295
110.1,13.05014
110.15,13.07993
110.2,12.66527
110.25,12.61104
110.3,12.04842
110.35,11.41086
110.4,11.30016
110.45,11.51093
110.5,11.64794
110.55,11.67932
110.6,11.412
110.65,10.83248
110.7,9.978669
110.75,9.829023
110.8,10.14091
110.85,10.14171
110.9,10.12411
110.95,10.1161
111,10.02491
111.05,9.651217
111.1,9.683371
111.15,9.650485
111.2,9.075277
111.25,8.786799
111.3,8.739457
111.35,9.174286
111.4,9.441915
111.45,9.501713
111.5,9.524374
111.55,9.329269
111.6,9.631848
111.65,9.459749
111.7,9.186526
111.75,8.612372
111.8,8.122538
111.85,8.052088
111.9,8.207982
111.95,8.89741
112,9.090977
112.05,9.702318
112.1,10.94809
112.15,12.23283
112.2,14.62457
112.25,19.32513
112.3,27.22709
112.35,34.59572
112.4,41.35285
112.45,49.15987
112.5,60.34111
112.55,75.55032
112.6,90.04168
112.65,100.0136
112.7,104.2962
112.75,105.677
112.8,108.5808
112.85,114.8916
112.9,123.2571
112.95,129.8297
113,131.0157
113.05,129.4768
113.1,125.4189
113.15,119.7136
113.2,114.7262
113.25,109.5247
113.3,102.4004
113.35,94.82837
113.4,87.49219
113.45,79.99338
113.5,72.21639
113.55,67.40946
113.6,62.94258
113.65,57.6757
113.7,52.77252
113.75,46.71608
113.8,41.76036
113.85,38.11843
113.9,35.49758
113.95,33.36232
114,29.87571
114.05,26.97066
114.1,24.48314
114.15,23.02613
114.2,21.82099
114.25,20.25014
114.3,18.59573
114.35,16.7234
114.4,16.3448
114.45,16.64567
114.5,16.41463
114.55,14.51062
114.6,12.59833
114.65,11.99235
114.7,12.28678
114.75,12.96119
114.8,13.35297
114.85,12.89287
114.9,12.59038
114.95,13.70657
115,13.92415
115.05,12.11906
115.1,10.42382
115.15,9.793066
115.2,9.690668
115.25,9.392189
115.3,9.063682
115.35,8.399831
115.4,7.867193
115.45,8.412885
115.5,8.943872
115.55,8.552291
115.6,7.39652
115.65,6.305298
115.7,5.906345
115.75,6.244492
115.8,6.956985
115.85,7.930964
115.9,8.167875
115.95,7.95824
116,7.987243
116.05,8.130464
116.1,8.073765
116.15,7.654439
116.2,7.047465
116.25,6.521044
116.3,6.316812
116.35,6.271197
116.4,6.311934
116.45,6.508447
116.5,6.315002
116.55,5.890742
116.6,5.442996
116.65,5.018772
116.7,5.080267
116.75,5.818488
116.8,6.117991
116.85,6.191524
116.9,5.885969
116.95,5.58742
117,5.546624
117.05,5.263881
117.1,4.83893
117.15,4.411121
117.2,4.395094
117.25,4.139277
117.3,4.183645
117.35,4.381225
117.4,4.37295
117.45,4.508763
117.5,4.58189
117.55,4.454183
117.6,4.042975
117.65,3.602633
117.7,3.258137
117.75,3.30002
117.8,3.371827
117.85,3.273343
117.9,3.267648
117.95,3.118826
118,3.166466
118.05,3.358359
118.1,3.535843
118.15,3.411159
118.2,3.220576
118.25,3.372804
118.3,3.401693
118.35,3.39677
118.4,3.388778
118.45,3.451332
118.5,3.242947
118.55,3.034029
118.6,3.125603
118.65,3.268481
118.7,3.356048
118.75,3.42566
118.8,3.448175
118.85,3.228195
118.9,3.139995
118.95,3.271932
119,3.296292
119.05,2.938451
119.1,2.725522
119.15,2.300481
119.2,2.296675
119.25,2.645887
119.3,3.350779
119.35,3.88941
119.4,3.900198
119.45,3.580336
119.5,3.155124
119.55,2.931135
119.6,2.781998
119.65,2.820702
119.7,2.56259
119.75,2.118594
119.8,1.889355
119.85,2.10586
119.9,2.353757
119.95,2.548815
120,2.770272
120.05,2.605093
120.1,2.564064
120.15,2.368687
120.2,2.487433
120.25,2.232262
120.3,1.86028
120.35,1.65642
120.4,1.61862
120.45,1.89499
120.5,2.105026
120.55,2.433456
120.6,2.46814
120.65,2.245634
120.7,1.976554
120.75,1.762588
120.8,1.674197
120.85,1.914403
120.9,2.502289
120.95,2.835762
121,2.706161
121.05,2.276159
121.1,2.01228
121.15,1.776444
121.2,1.789989
121.25,1.807384
121.3,1.76537
121.35,1.661797
121.4,1.532635
121.45,1.54019
121.5,1.59502
121.55,1.727746
121.6,1.727259
121.65,1.754395
121.7,1.527229
121.75,1.3489
121.8,1.432117
121.85,1.685833
121.9,1.874388
121.95,1.964274
122,2.139791
122.05,1.903809
122.1,1.611624
122.15,1.318452
122.2,1.382513
122.25,1.383689
122.3,1.389716
122.35,1.600212
122.4,1.739479
122.45,1.801634
122.5,1.559866
122.55,1.475529
122.6,1.259713
122.65,1.064057
122.7,0.9146231
122.75,0.8070049
122.8,0.6455979
122.85,0.4815372
122.9,0.558363
122.95,0.7412103
123,0.8257074
123.05,0.6810071
123.1,0.6948156
123.15,0.6058462
123.2,0.4554088
123.25,0.3733041
123.3,0.3744898
123.35,0.4523213
123.4,0.621322
123.45,0.9727362
123.5,0.7638785
123.55,0.4160557
123.6,0.5073817
123.65,0.7110389
123.7,0.9618327
123.75,1.357864
123.8,1.540052
123.85,1.13555
123.9,1.128722
123.95,1.193065
124,0.9754766
124.05,0.8397281
124.1,0.8542356
124.15,0.7099596
124.2,0.6274958
124.25,0.7584892
124.3,0.4540633
124.35,0.1051631
124.4,-0.100978
124.45,-0.2921714
124.5,-0.6007498
124.55,-0.4202611
124.6,-0.1156982
124.65,-4.265859E-02
124.7,0.1464895
124.75,0.3685778
124.8,0.5549936
124.85,0.5711125
124.9,0.682145
124.95,0.5149235
125,0.3454048
125.05,0.2116263
125.1,0.2833408
125.15,0.4215037
125.2,0.6919245
125.25,1.017868
125.3,1.049649
125.35,0.825348
125.4,0.2503808
125.45,-2.869551E-02
125.5,-0.3217373
125.55,-0.5815812
125.6,-0.7085667
125.65,-0.7922525
125.7,-0.8335845
125.75,-0.7906016
125.8,-0.4503298
125.85,-0.4847061
125.9,-0.7462229
125.95,-0.8404164
126,-0.8002955
126.05,-0.5919795
126.1,-0.25272
126.15,-4.919847E-02
126.2,-0.2187851
126.25,-0.5025828
126.3,-0.791335
126.35,-0.898529
126.4,-0.7144925
126.45,-0.38515
126.5,-9.286452E-03
126.55,0.4138999
126.6,0.4059998
126.65,-6.088907E-02
126.7,-0.6708373
126.75,-1.141328
126.8,-1.352037
126.85,-1.472561
126.9,-1.367799
126.95,-1.162137
127,-0.9817798
127.05,-0.8238743
127.1,-0.7437286
127.15,-0.7437286
127.2,-0.7437286
127.25,-0.7437286
127.3,-0.7437286
127.35,-0.7437286
127.4,-0.7437286
127.45,-0.7437286
127.5,-0.7437286
127.55,-0.7437286
127.6,-0.7437286
127.65,-0.7437286
127.7,-0.7437286
127.75,-0.7437286
127.8,-0.7437286
127.85,-0.7437286
127.9,-0.7437286
127.95,-0.7437286
128,-0.7437286
128.05,-0.7437286
128.1,-0.7437286
128.15,-0.7437286
128.2,-0.7437286
128.25,-0.7437286
128.3,-0.7437286
128.35,-0.7437286
128.4,-0.7437286
128.45,-0.7437286
128.5,-0.7437286
128.55,-0.7437286
128.6,-0.7437286
128.65,-0.7437286
128.7,-0.7437286
128.75,-0.7437286
128.8,-0.7437286
128.85,-0.7437286
128.9,-0.7437286
128.95,-0.7437286
129,-0.7437286
129.05,-0.7437286
129.1,-0.7437286
129.15,-0.7437286
129.2,-0.7437286
129.25,-0.7437286
129.3,-0.7437286
129.35,-0.7437286
129.4,-0.7437286
129.45,-0.7437286
129.5,-0.7437286
129.55,-0.7437286
129.6,-0.7437286
129.65,-0.7437286
129.7,-0.7437286
129.75,-0.7437286
129.8,-0.7437286
129.85,-0.7437286
129.9,-0.7437286
129.95,-0.7437286
130,-0.7437286
130.05,-0.7437286
130.1,-0.7437286
130.15,-0.7437286
130.2,-0.7437286
130.25,-0.7437286
130.3,-0.7437286
130.35,-0.7437286
130.4,-0.7437286
130.45,-0.7437286
130.5,-0.7437286
130.55,-0.7437286
130.6,-0.7437286
130.65,-0.7437286
130.7,-0.7437286
130.75,-0.7437286
130.8,-0.7437286
130.85,-0.7437286
130.9,-0.7437286
130.95,-0.7437286
131,-0.7437286
131.05,-0.7437286
131.1,-0.7437286
131.15,-0.7437286
131.2,-0.7437286
131.25,-0.7437286
131.3,-0.7437286
131.35,-0.7437286
131.4,-0.7437286
131.45,-0.7437286
131.5,-0.7437286
131.55,-0.7437286
131.6,-0.7437286
131.65,-0.7437286
131.7,-0.7437286
131.75,-0.7437286
131.8,-0.7437286
131.85,-0.7437286
131.9,-0.7437286
131.95,-0.7437286
132,-0.7437286
132.05,-0.7437286
132.1,-0.7437286
132.15,-0.7437286
132.2,-0.7437286
132.25,-0.7437286
132.3,-0.7437286
132.35,-0.7437286
132.4,-0.7437286
132.45,-0.7437286
132.5,-0.7437286
132.55,-0.7437286
132.6,-0.7437286
132.65,-0.7437286
132.7,-0.7437286
132.75,-0.7437286
132.8,-0.7437286
132.85,-0.7437286
132.9,-0.7437286
132.95,-0.7437286
133,-0.7437286
133.05,-0.7437286
133.1,-0.7437286
133.15,-0.7437286
133.2,-0.7437286
133.25,-0.7437286
133.3,-0.7437286
133.35,-0.7437286
133.4,-0.7437286
133.45,-0.7437286
133.5,-0.7437286
133.55,-0.7437286
133.6,-0.7437286
133.65,-0.7437286
133.7,-0.7437286
133.75,-0.7437286
133.8,-0.7437286
133.85,-0.7437286
133.9,-0.7437286
133.95,-0.7437286
134,-0.7437286
134.05,-0.7437286
134.1,-0.7437286
134.15,-0.7437286
134.2,-0.7437286
134.25,-0.7437286
134.3,-0.7437286
134.35,-0.7437286
134.4,-0.7437286
134.45,-0.7437286
134.5,-0.7437286
134.55,-0.7437286
134.6,-0.7437286
134.65,-0.7437286
134.7,-0.7437286
134.75,-0.7437286
134.8,-0.7437286
134.85,-0.7437286
134.9,-0.7437286
134.95,-0.7437286
135,-0.7437286
135.05,-0.7437286
135.1,-0.7437286
135.15,-0.7437286
135.2,-0.7437286
135.25,-0.7437286
135.3,-0.7437286
135.35,-0.7437286
135.4,-0.7437286
135.45,-0.7437286
135.5,-0.7437286
135.55,-0.7437286
135.6,-0.7437286
135.65,-0.7437286
135.7,-0.7437286
135.75,-0.7437286
135.8,-0.7437286
135.85,-0.7437286
135.9,-0.7437286
135.95,-0.7437286
136,-0.7437286
136.05,-0.7437286
136.1,-0.7437286
136.15,-0.7437286
136.2,-0.7437286
136.25,-0.7437286
136.3,-0.7437286
136.35,-0.7437286
136.4,-0.7437286
136.45,-0.7437286
136.5,-0.7437286
136.55,-0.7437286
136.6,-0.7437286
136.65,-0.7437286
136.7,-0.7437286
136.75,-0.7437286
136.8,-0.7437286
136.85,-0.7437286
136.9,-0.7437286
136.95,-0.7437286
137,-0.7437286
137.05,-0.7437286
137.1,-0.7437286
137.15,-0.7437286
137.2,-0.7437286
137.25,-0.7437286
137.3,-0.7437286
137.35,-0.7437286
137.4,-0.7437286
137.45,-0.7437286
137.5,-0.7437286
137.55,-0.7437286
137.6,-0.7437286
137.65,-0.7437286
137.7,-0.7437286
137.75,-0.7437286
137.8,-0.7437286
137.85,-0.7437286
137.9,-0.7437286
137.95,-0.7437286
138,-0.7437286
 
Alignment,On
